HB psi psi
0.0240937647059
N/A
N/A
N/A
N/A
N/A
-560.0;-540.0;-520.0;-500.0;-440.0;-420.0;-400.0;-380.0;-360.0;-340.0;-320.0;-300.0;-280.0;-260.0;-240.0;-220.0;-200.0;-180.0;-160.0;-140.0;-80.0;-60.0;-40.0;-20.0;0.0;20.0;40.0;60.0;80.0;100.0;120.0;140.0;160.0;180.0;200.0;220.0;280.0;300.0;320.0;340.0;360.0;380.0;400.0;420.0;440.0;460.0;480.0;500.0;520.0;540.0;560.0
0.041876;0.09932;0.110345;0.211806;-0.138172;-0.022352;-0.018867;-0.014815;-0.008763;0.004663;0.077842;-0.020537;-0.006228;0.023017;-0.017474;-0.011387;0.041876;0.09932;0.110345;0.211806;-0.138172;-0.022352;-0.018867;-0.014815;-0.008763;0.004663;0.077842;-0.020537;-0.006228;0.023017;-0.017474;-0.011387;0.041876;0.09932;0.110345;0.211806;-0.138172;-0.022352;-0.018867;-0.014815;-0.008763;0.004663;0.077842;-0.020537;-0.006228;0.023017;-0.017474;-0.011387;0.041876;0.09932;0.110345
